LabVIEW Measurement
Writer_Version	2
Reader_Version	2
Separator	Tab
Decimal_Separator	.
Multi_Headings	Yes
X_Columns	No
Time_Pref	Relative
Operator	light
Date	2017/06/13
Time	19:49:00.9943318367004394532
***End_of_Header***	
	
Channels	2	
Samples	3398	3398	
Date	2017/06/13	2017/06/13	
Time	19:49:00.9943318367004394532	19:49:00.9943318367004394532	
X_Dimension	Time	Time	
X0	0.0000000000000000E+0	0.0000000000000000E+0	
Delta_X	1.000000	1.000000	
***End_of_Header***			
X_Value	X Array	Y Array	Comment
	0.000000	8.375000
	0.995000	8.375000
	1.005000	8.366026
	1.995000	8.366026
	2.005000	8.357051
	2.995000	8.357051
	3.005000	8.348077
	3.995000	8.348077
	4.005000	8.339103
	4.995000	8.339103
	5.005000	8.330128
	5.995000	8.330128
	6.005000	8.321154
	6.995000	8.321154
	7.005000	8.312179
	7.995000	8.312179
	8.005000	8.303205
	8.995000	8.303205
	9.005000	8.294231
	9.995000	8.294231
	10.005000	8.285256
	10.995000	8.285256
	11.005000	8.276282
	11.995000	8.276282
	12.005000	8.267308
	12.995000	8.267308
	13.005000	8.258333
	13.995000	8.258333
	14.005000	8.249359
	14.995000	8.249359
	15.005000	8.240385
	15.995000	8.240385
	16.005000	8.231410
	16.995000	8.231410
	17.005000	8.222436
	17.995000	8.222436
	18.005000	8.213462
	18.995000	8.213462
	19.005000	8.204487
	19.995000	8.204487
	20.005000	8.195513
	20.995000	8.195513
	21.005000	8.186538
	21.995000	8.186538
	22.005000	8.177564
	22.995000	8.177564
	23.005000	8.168590
	23.995000	8.168590
	24.005000	8.159615
	24.995000	8.159615
	25.005000	8.150641
	25.995000	8.150641
	26.005000	8.141667
	26.995000	8.141667
	27.005000	8.132692
	27.995000	8.132692
	28.005000	8.123718
	28.995000	8.123718
	29.005000	8.114744
	29.995000	8.114744
	30.005000	8.105769
	30.995000	8.105769
	31.005000	8.096795
	31.995000	8.096795
	32.005000	8.087821
	32.995000	8.087821
	33.005000	8.078846
	33.995000	8.078846
	34.005000	8.069872
	34.995000	8.069872
	35.005000	8.060897
	35.995000	8.060897
	36.005000	8.051923
	36.995000	8.051923
	37.005000	8.042949
	37.995000	8.042949
	38.005000	8.033974
	38.995000	8.033974
	39.005000	8.025000
	40.000000	8.025000
	40.995000	8.025000
	41.005000	8.033974
	41.995000	8.033974
	42.005000	8.042949
	42.995000	8.042949
	43.005000	8.051923
	43.995000	8.051923
	44.005000	8.060897
	44.995000	8.060897
	45.005000	8.069872
	45.995000	8.069872
	46.005000	8.078846
	46.995000	8.078846
	47.005000	8.087821
	47.995000	8.087821
	48.005000	8.096795
	48.995000	8.096795
	49.005000	8.105769
	49.995000	8.105769
	50.005000	8.114744
	50.995000	8.114744
	51.005000	8.123718
	51.995000	8.123718
	52.005000	8.132692
	52.995000	8.132692
	53.005000	8.141667
	53.995000	8.141667
	54.005000	8.150641
	54.995000	8.150641
	55.005000	8.159615
	55.995000	8.159615
	56.005000	8.168590
	56.995000	8.168590
	57.005000	8.177564
	57.995000	8.177564
	58.005000	8.186538
	58.995000	8.186538
	59.005000	8.195513
	59.995000	8.195513
	60.005000	8.204487
	60.995000	8.204487
	61.005000	8.213462
	61.995000	8.213462
	62.005000	8.222436
	62.995000	8.222436
	63.005000	8.231410
	63.995000	8.231410
	64.005000	8.240385
	64.995000	8.240385
	65.005000	8.249359
	65.995000	8.249359
	66.005000	8.258333
	66.995000	8.258333
	67.005000	8.267308
	67.995000	8.267308
	68.005000	8.276282
	68.995000	8.276282
	69.005000	8.285256
	69.995000	8.285256
	70.005000	8.294231
	70.995000	8.294231
	71.005000	8.303205
	71.995000	8.303205
	72.005000	8.312179
	72.995000	8.312179
	73.005000	8.321154
	73.995000	8.321154
	74.005000	8.330128
	74.995000	8.330128
	75.005000	8.339103
	75.995000	8.339103
	76.005000	8.348077
	76.995000	8.348077
	77.005000	8.357051
	77.995000	8.357051
	78.005000	8.366026
	78.995000	8.366026
	79.005000	8.375000
	80.000000	8.375000
	80.995000	8.375000
	81.005000	8.366026
	81.995000	8.366026
	82.005000	8.357051
	82.995000	8.357051
	83.005000	8.348077
	83.995000	8.348077
	84.005000	8.339103
	84.995000	8.339103
	85.005000	8.330128
	85.995000	8.330128
	86.005000	8.321154
	86.995000	8.321154
	87.005000	8.312179
	87.995000	8.312179
	88.005000	8.303205
	88.995000	8.303205
	89.005000	8.294231
	89.995000	8.294231
	90.005000	8.285256
	90.995000	8.285256
	91.005000	8.276282
	91.995000	8.276282
	92.005000	8.267308
	92.995000	8.267308
	93.005000	8.258333
	93.995000	8.258333
	94.005000	8.249359
	94.995000	8.249359
	95.005000	8.240385
	95.995000	8.240385
	96.005000	8.231410
	96.995000	8.231410
	97.005000	8.222436
	97.995000	8.222436
	98.005000	8.213462
	98.995000	8.213462
	99.005000	8.204487
	99.995000	8.204487
	100.005000	8.195513
	100.995000	8.195513
	101.005000	8.186538
	101.995000	8.186538
	102.005000	8.177564
	102.995000	8.177564
	103.005000	8.168590
	103.995000	8.168590
	104.005000	8.159615
	104.995000	8.159615
	105.005000	8.150641
	105.995000	8.150641
	106.005000	8.141667
	106.995000	8.141667
	107.005000	8.132692
	107.995000	8.132692
	108.005000	8.123718
	108.995000	8.123718
	109.005000	8.114744
	109.995000	8.114744
	110.005000	8.105769
	110.995000	8.105769
	111.005000	8.096795
	111.995000	8.096795
	112.005000	8.087821
	112.995000	8.087821
	113.005000	8.078846
	113.995000	8.078846
	114.005000	8.069872
	114.995000	8.069872
	115.005000	8.060897
	115.995000	8.060897
	116.005000	8.051923
	116.995000	8.051923
	117.005000	8.042949
	117.995000	8.042949
	118.005000	8.033974
	118.995000	8.033974
	119.005000	8.025000
	120.000000	8.025000
	120.995000	8.025000
	121.005000	8.033974
	121.995000	8.033974
	122.005000	8.042949
	122.995000	8.042949
	123.005000	8.051923
	123.995000	8.051923
	124.005000	8.060897
	124.995000	8.060897
	125.005000	8.069872
	125.995000	8.069872
	126.005000	8.078846
	126.995000	8.078846
	127.005000	8.087821
	127.995000	8.087821
	128.005000	8.096795
	128.995000	8.096795
	129.005000	8.105769
	129.995000	8.105769
	130.005000	8.114744
	130.995000	8.114744
	131.005000	8.123718
	131.995000	8.123718
	132.005000	8.132692
	132.995000	8.132692
	133.005000	8.141667
	133.995000	8.141667
	134.005000	8.150641
	134.995000	8.150641
	135.005000	8.159615
	135.995000	8.159615
	136.005000	8.168590
	136.995000	8.168590
	137.005000	8.177564
	137.995000	8.177564
	138.005000	8.186538
	138.995000	8.186538
	139.005000	8.195513
	139.995000	8.195513
	140.005000	8.204487
	140.995000	8.204487
	141.005000	8.213462
	141.995000	8.213462
	142.005000	8.222436
	142.995000	8.222436
	143.005000	8.231410
	143.995000	8.231410
	144.005000	8.240385
	144.995000	8.240385
	145.005000	8.249359
	145.995000	8.249359
	146.005000	8.258333
	146.995000	8.258333
	147.005000	8.267308
	147.995000	8.267308
	148.005000	8.276282
	148.995000	8.276282
	149.005000	8.285256
	149.995000	8.285256
	150.005000	8.294231
	150.995000	8.294231
	151.005000	8.303205
	151.995000	8.303205
	152.005000	8.312179
	152.995000	8.312179
	153.005000	8.321154
	153.995000	8.321154
	154.005000	8.330128
	154.995000	8.330128
	155.005000	8.339103
	155.995000	8.339103
	156.005000	8.348077
	156.995000	8.348077
	157.005000	8.357051
	157.995000	8.357051
	158.005000	8.366026
	158.995000	8.366026
	159.005000	8.375000
	160.000000	8.375000
	160.995000	8.375000
	161.005000	8.366026
	161.995000	8.366026
	162.005000	8.357051
	162.995000	8.357051
	163.005000	8.348077
	163.995000	8.348077
	164.005000	8.339103
	164.995000	8.339103
	165.005000	8.330128
	165.995000	8.330128
	166.005000	8.321154
	166.995000	8.321154
	167.005000	8.312179
	167.995000	8.312179
	168.005000	8.303205
	168.995000	8.303205
	169.005000	8.294231
	169.995000	8.294231
	170.005000	8.285256
	170.995000	8.285256
	171.005000	8.276282
	171.995000	8.276282
	172.005000	8.267308
	172.995000	8.267308
	173.005000	8.258333
	173.995000	8.258333
	174.005000	8.249359
	174.995000	8.249359
	175.005000	8.240385
	175.995000	8.240385
	176.005000	8.231410
	176.995000	8.231410
	177.005000	8.222436
	177.995000	8.222436
	178.005000	8.213462
	178.995000	8.213462
	179.005000	8.204487
	179.995000	8.204487
	180.005000	8.195513
	180.995000	8.195513
	181.005000	8.186538
	181.995000	8.186538
	182.005000	8.177564
	182.995000	8.177564
	183.005000	8.168590
	183.995000	8.168590
	184.005000	8.159615
	184.995000	8.159615
	185.005000	8.150641
	185.995000	8.150641
	186.005000	8.141667
	186.995000	8.141667
	187.005000	8.132692
	187.995000	8.132692
	188.005000	8.123718
	188.995000	8.123718
	189.005000	8.114744
	189.995000	8.114744
	190.005000	8.105769
	190.995000	8.105769
	191.005000	8.096795
	191.995000	8.096795
	192.005000	8.087821
	192.995000	8.087821
	193.005000	8.078846
	193.995000	8.078846
	194.005000	8.069872
	194.995000	8.069872
	195.005000	8.060897
	195.995000	8.060897
	196.005000	8.051923
	196.995000	8.051923
	197.005000	8.042949
	197.995000	8.042949
	198.005000	8.033974
	198.995000	8.033974
	199.005000	8.025000
	200.000000	8.025000
	200.995000	8.025000
	201.005000	8.033974
	201.995000	8.033974
	202.005000	8.042949
	202.995000	8.042949
	203.005000	8.051923
	203.995000	8.051923
	204.005000	8.060897
	204.995000	8.060897
	205.005000	8.069872
	205.995000	8.069872
	206.005000	8.078846
	206.995000	8.078846
	207.005000	8.087821
	207.995000	8.087821
	208.005000	8.096795
	208.995000	8.096795
	209.005000	8.105769
	209.995000	8.105769
	210.005000	8.114744
	210.995000	8.114744
	211.005000	8.123718
	211.995000	8.123718
	212.005000	8.132692
	212.995000	8.132692
	213.005000	8.141667
	213.995000	8.141667
	214.005000	8.150641
	214.995000	8.150641
	215.005000	8.159615
	215.995000	8.159615
	216.005000	8.168590
	216.995000	8.168590
	217.005000	8.177564
	217.995000	8.177564
	218.005000	8.186538
	218.995000	8.186538
	219.005000	8.195513
	219.995000	8.195513
	220.005000	8.204487
	220.995000	8.204487
	221.005000	8.213462
	221.995000	8.213462
	222.005000	8.222436
	222.995000	8.222436
	223.005000	8.231410
	223.995000	8.231410
	224.005000	8.240385
	224.995000	8.240385
	225.005000	8.249359
	225.995000	8.249359
	226.005000	8.258333
	226.995000	8.258333
	227.005000	8.267308
	227.995000	8.267308
	228.005000	8.276282
	228.995000	8.276282
	229.005000	8.285256
	229.995000	8.285256
	230.005000	8.294231
	230.995000	8.294231
	231.005000	8.303205
	231.995000	8.303205
	232.005000	8.312179
	232.995000	8.312179
	233.005000	8.321154
	233.995000	8.321154
	234.005000	8.330128
	234.995000	8.330128
	235.005000	8.339103
	235.995000	8.339103
	236.005000	8.348077
	236.995000	8.348077
	237.005000	8.357051
	237.995000	8.357051
	238.005000	8.366026
	238.995000	8.366026
	239.005000	8.375000
	240.000000	8.375000
	240.995000	8.375000
	241.005000	8.366026
	241.995000	8.366026
	242.005000	8.357051
	242.995000	8.357051
	243.005000	8.348077
	243.995000	8.348077
	244.005000	8.339103
	244.995000	8.339103
	245.005000	8.330128
	245.995000	8.330128
	246.005000	8.321154
	246.995000	8.321154
	247.005000	8.312179
	247.995000	8.312179
	248.005000	8.303205
	248.995000	8.303205
	249.005000	8.294231
	249.995000	8.294231
	250.005000	8.285256
	250.995000	8.285256
	251.005000	8.276282
	251.995000	8.276282
	252.005000	8.267308
	252.995000	8.267308
	253.005000	8.258333
	253.995000	8.258333
	254.005000	8.249359
	254.995000	8.249359
	255.005000	8.240385
	255.995000	8.240385
	256.005000	8.231410
	256.995000	8.231410
	257.005000	8.222436
	257.995000	8.222436
	258.005000	8.213462
	258.995000	8.213462
	259.005000	8.204487
	259.995000	8.204487
	260.005000	8.195513
	260.995000	8.195513
	261.005000	8.186538
	261.995000	8.186538
	262.005000	8.177564
	262.995000	8.177564
	263.005000	8.168590
	263.995000	8.168590
	264.005000	8.159615
	264.995000	8.159615
	265.005000	8.150641
	265.995000	8.150641
	266.005000	8.141667
	266.995000	8.141667
	267.005000	8.132692
	267.995000	8.132692
	268.005000	8.123718
	268.995000	8.123718
	269.005000	8.114744
	269.995000	8.114744
	270.005000	8.105769
	270.995000	8.105769
	271.005000	8.096795
	271.995000	8.096795
	272.005000	8.087821
	272.995000	8.087821
	273.005000	8.078846
	273.995000	8.078846
	274.005000	8.069872
	274.995000	8.069872
	275.005000	8.060897
	275.995000	8.060897
	276.005000	8.051923
	276.995000	8.051923
	277.005000	8.042949
	277.995000	8.042949
	278.005000	8.033974
	278.995000	8.033974
	279.005000	8.025000
	280.000000	8.025000
	280.995000	8.025000
	281.005000	8.033974
	281.995000	8.033974
	282.005000	8.042949
	282.995000	8.042949
	283.005000	8.051923
	283.995000	8.051923
	284.005000	8.060897
	284.995000	8.060897
	285.005000	8.069872
	285.995000	8.069872
	286.005000	8.078846
	286.995000	8.078846
	287.005000	8.087821
	287.995000	8.087821
	288.005000	8.096795
	288.995000	8.096795
	289.005000	8.105769
	289.995000	8.105769
	290.005000	8.114744
	290.995000	8.114744
	291.005000	8.123718
	291.995000	8.123718
	292.005000	8.132692
	292.995000	8.132692
	293.005000	8.141667
	293.995000	8.141667
	294.005000	8.150641
	294.995000	8.150641
	295.005000	8.159615
	295.995000	8.159615
	296.005000	8.168590
	296.995000	8.168590
	297.005000	8.177564
	297.995000	8.177564
	298.005000	8.186538
	298.995000	8.186538
	299.005000	8.195513
	299.995000	8.195513
	300.005000	8.204487
	300.995000	8.204487
	301.005000	8.213462
	301.995000	8.213462
	302.005000	8.222436
	302.995000	8.222436
	303.005000	8.231410
	303.995000	8.231410
	304.005000	8.240385
	304.995000	8.240385
	305.005000	8.249359
	305.995000	8.249359
	306.005000	8.258333
	306.995000	8.258333
	307.005000	8.267308
	307.995000	8.267308
	308.005000	8.276282
	308.995000	8.276282
	309.005000	8.285256
	309.995000	8.285256
	310.005000	8.294231
	310.995000	8.294231
	311.005000	8.303205
	311.995000	8.303205
	312.005000	8.312179
	312.995000	8.312179
	313.005000	8.321154
	313.995000	8.321154
	314.005000	8.330128
	314.995000	8.330128
	315.005000	8.339103
	315.995000	8.339103
	316.005000	8.348077
	316.995000	8.348077
	317.005000	8.357051
	317.995000	8.357051
	318.005000	8.366026
	318.995000	8.366026
	319.005000	8.375000
	320.000000	8.375000
	320.995000	8.375000
	321.005000	8.366026
	321.995000	8.366026
	322.005000	8.357051
	322.995000	8.357051
	323.005000	8.348077
	323.995000	8.348077
	324.005000	8.339103
	324.995000	8.339103
	325.005000	8.330128
	325.995000	8.330128
	326.005000	8.321154
	326.995000	8.321154
	327.005000	8.312179
	327.995000	8.312179
	328.005000	8.303205
	328.995000	8.303205
	329.005000	8.294231
	329.995000	8.294231
	330.005000	8.285256
	330.995000	8.285256
	331.005000	8.276282
	331.995000	8.276282
	332.005000	8.267308
	332.995000	8.267308
	333.005000	8.258333
	333.995000	8.258333
	334.005000	8.249359
	334.995000	8.249359
	335.005000	8.240385
	335.995000	8.240385
	336.005000	8.231410
	336.995000	8.231410
	337.005000	8.222436
	337.995000	8.222436
	338.005000	8.213462
	338.995000	8.213462
	339.005000	8.204487
	339.995000	8.204487
	340.005000	8.195513
	340.995000	8.195513
	341.005000	8.186538
	341.995000	8.186538
	342.005000	8.177564
	342.995000	8.177564
	343.005000	8.168590
	343.995000	8.168590
	344.005000	8.159615
	344.995000	8.159615
	345.005000	8.150641
	345.995000	8.150641
	346.005000	8.141667
	346.995000	8.141667
	347.005000	8.132692
	347.995000	8.132692
	348.005000	8.123718
	348.995000	8.123718
	349.005000	8.114744
	349.995000	8.114744
	350.005000	8.105769
	350.995000	8.105769
	351.005000	8.096795
	351.995000	8.096795
	352.005000	8.087821
	352.995000	8.087821
	353.005000	8.078846
	353.995000	8.078846
	354.005000	8.069872
	354.995000	8.069872
	355.005000	8.060897
	355.995000	8.060897
	356.005000	8.051923
	356.995000	8.051923
	357.005000	8.042949
	357.995000	8.042949
	358.005000	8.033974
	358.995000	8.033974
	359.005000	8.025000
	360.000000	8.025000
	360.995000	8.025000
	361.005000	8.033974
	361.995000	8.033974
	362.005000	8.042949
	362.995000	8.042949
	363.005000	8.051923
	363.995000	8.051923
	364.005000	8.060897
	364.995000	8.060897
	365.005000	8.069872
	365.995000	8.069872
	366.005000	8.078846
	366.995000	8.078846
	367.005000	8.087821
	367.995000	8.087821
	368.005000	8.096795
	368.995000	8.096795
	369.005000	8.105769
	369.995000	8.105769
	370.005000	8.114744
	370.995000	8.114744
	371.005000	8.123718
	371.995000	8.123718
	372.005000	8.132692
	372.995000	8.132692
	373.005000	8.141667
	373.995000	8.141667
	374.005000	8.150641
	374.995000	8.150641
	375.005000	8.159615
	375.995000	8.159615
	376.005000	8.168590
	376.995000	8.168590
	377.005000	8.177564
	377.995000	8.177564
	378.005000	8.186538
	378.995000	8.186538
	379.005000	8.195513
	379.995000	8.195513
	380.005000	8.204487
	380.995000	8.204487
	381.005000	8.213462
	381.995000	8.213462
	382.005000	8.222436
	382.995000	8.222436
	383.005000	8.231410
	383.995000	8.231410
	384.005000	8.240385
	384.995000	8.240385
	385.005000	8.249359
	385.995000	8.249359
	386.005000	8.258333
	386.995000	8.258333
	387.005000	8.267308
	387.995000	8.267308
	388.005000	8.276282
	388.995000	8.276282
	389.005000	8.285256
	389.995000	8.285256
	390.005000	8.294231
	390.995000	8.294231
	391.005000	8.303205
	391.995000	8.303205
	392.005000	8.312179
	392.995000	8.312179
	393.005000	8.321154
	393.995000	8.321154
	394.005000	8.330128
	394.995000	8.330128
	395.005000	8.339103
	395.995000	8.339103
	396.005000	8.348077
	396.995000	8.348077
	397.005000	8.357051
	397.995000	8.357051
	398.005000	8.366026
	398.995000	8.366026
	399.005000	8.375000
	400.000000	8.375000
	400.995000	8.375000
	401.005000	8.366026
	401.995000	8.366026
	402.005000	8.357051
	402.995000	8.357051
	403.005000	8.348077
	403.995000	8.348077
	404.005000	8.339103
	404.995000	8.339103
	405.005000	8.330128
	405.995000	8.330128
	406.005000	8.321154
	406.995000	8.321154
	407.005000	8.312179
	407.995000	8.312179
	408.005000	8.303205
	408.995000	8.303205
	409.005000	8.294231
	409.995000	8.294231
	410.005000	8.285256
	410.995000	8.285256
	411.005000	8.276282
	411.995000	8.276282
	412.005000	8.267308
	412.995000	8.267308
	413.005000	8.258333
	413.995000	8.258333
	414.005000	8.249359
	414.995000	8.249359
	415.005000	8.240385
	415.995000	8.240385
	416.005000	8.231410
	416.995000	8.231410
	417.005000	8.222436
	417.995000	8.222436
	418.005000	8.213462
	418.995000	8.213462
	419.005000	8.204487
	419.995000	8.204487
	420.005000	8.195513
	420.995000	8.195513
	421.005000	8.186538
	421.995000	8.186538
	422.005000	8.177564
	422.995000	8.177564
	423.005000	8.168590
	423.995000	8.168590
	424.005000	8.159615
	424.995000	8.159615
	425.005000	8.150641
	425.995000	8.150641
	426.005000	8.141667
	426.995000	8.141667
	427.005000	8.132692
	427.995000	8.132692
	428.005000	8.123718
	428.995000	8.123718
	429.005000	8.114744
	429.995000	8.114744
	430.005000	8.105769
	430.995000	8.105769
	431.005000	8.096795
	431.995000	8.096795
	432.005000	8.087821
	432.995000	8.087821
	433.005000	8.078846
	433.995000	8.078846
	434.005000	8.069872
	434.995000	8.069872
	435.005000	8.060897
	435.995000	8.060897
	436.005000	8.051923
	436.995000	8.051923
	437.005000	8.042949
	437.995000	8.042949
	438.005000	8.033974
	438.995000	8.033974
	439.005000	8.025000
	440.000000	8.025000
	440.995000	8.025000
	441.005000	8.033974
	441.995000	8.033974
	442.005000	8.042949
	442.995000	8.042949
	443.005000	8.051923
	443.995000	8.051923
	444.005000	8.060897
	444.995000	8.060897
	445.005000	8.069872
	445.995000	8.069872
	446.005000	8.078846
	446.995000	8.078846
	447.005000	8.087821
	447.995000	8.087821
	448.005000	8.096795
	448.995000	8.096795
	449.005000	8.105769
	449.995000	8.105769
	450.005000	8.114744
	450.995000	8.114744
	451.005000	8.123718
	451.995000	8.123718
	452.005000	8.132692
	452.995000	8.132692
